LUNA Datafile
Version = 2.0
Scan = Spectrometer 

[Scan info]
Users: sbn, ttl,ck, jl
Ion name: ox170
Ion mass: 0.0 amu
Ion charge: 1

Laser used: Laser 1
Excitation wavelength: 580.0 nm
Laser filter OD: 1.5
Laser power: 0.20 mW

Flourescence filter type: Longpass filter
Filter wavelength: 561.0

[Consys]
No Consys info found
[Consys]

[Timing]
No Timing info found
[Timing]

[Data file info]


Time elapsed (min): 2.2
Pictures taken: 1200
[Data file info]
[Scan info]

[Notes]
-176oC
[Notes]

[Detectors]
Wavelength	Bg	Sig	Ref

[AndorNewton]
5.50000E+2	6.22384E+5	6.22328E+5	5.60000E+1
5.50494E+2	6.17411E+5	6.17232E+5	1.79000E+2
5.50988E+2	6.16111E+5	6.16283E+5	-1.72000E+2
5.51482E+2	6.15173E+5	6.15419E+5	-2.46000E+2
5.51976E+2	6.16292E+5	6.16239E+5	5.30000E+1
5.52470E+2	6.16119E+5	6.15618E+5	5.01000E+2
5.52963E+2	6.15433E+5	6.15306E+5	1.27000E+2
5.53457E+2	6.14596E+5	6.14664E+5	-6.80000E+1
5.53951E+2	6.14779E+5	6.14491E+5	2.88000E+2
5.54445E+2	6.14693E+5	6.14657E+5	3.60000E+1
5.54939E+2	6.14222E+5	6.14137E+5	8.50000E+1
5.55433E+2	6.13909E+5	6.14060E+5	-1.51000E+2
5.55926E+2	6.13891E+5	6.13946E+5	-5.50000E+1
5.56420E+2	6.13827E+5	6.13553E+5	2.74000E+2
5.56914E+2	6.14237E+5	6.14620E+5	-3.83000E+2
5.57407E+2	6.14804E+5	6.14537E+5	2.67000E+2
5.57901E+2	6.14729E+5	6.14887E+5	-1.58000E+2
5.58394E+2	6.14532E+5	6.14599E+5	-6.70000E+1
5.58888E+2	6.14037E+5	6.14127E+5	-9.00000E+1
5.59381E+2	6.14233E+5	6.14195E+5	3.80000E+1
5.59875E+2	6.13250E+5	6.13489E+5	-2.39000E+2
5.60368E+2	6.13366E+5	6.13410E+5	-4.40000E+1
5.60862E+2	6.12876E+5	6.12820E+5	5.60000E+1
5.61355E+2	6.12627E+5	6.12654E+5	-2.70000E+1
5.61849E+2	6.12684E+5	6.12543E+5	1.41000E+2
5.62342E+2	6.12272E+5	6.12175E+5	9.70000E+1
5.62835E+2	6.12197E+5	6.12230E+5	-3.30000E+1
5.63329E+2	6.12104E+5	6.12211E+5	-1.07000E+2
5.63822E+2	6.12129E+5	6.12008E+5	1.21000E+2
5.64315E+2	6.12023E+5	6.12153E+5	-1.30000E+2
5.64809E+2	6.11994E+5	6.12127E+5	-1.33000E+2
5.65302E+2	6.12339E+5	6.12524E+5	-1.85000E+2
5.65795E+2	6.12260E+5	6.12169E+5	9.10000E+1
5.66288E+2	6.12411E+5	6.12343E+5	6.80000E+1
5.66781E+2	6.12659E+5	6.12291E+5	3.68000E+2
5.67274E+2	6.12254E+5	6.12427E+5	-1.73000E+2
5.67767E+2	6.12714E+5	6.12449E+5	2.65000E+2
5.68260E+2	6.12611E+5	6.12453E+5	1.58000E+2
5.68753E+2	6.12634E+5	6.12612E+5	2.20000E+1
5.69246E+2	6.12825E+5	6.12852E+5	-2.70000E+1
5.69739E+2	6.12730E+5	6.12560E+5	1.70000E+2
5.70232E+2	6.12867E+5	6.12780E+5	8.70000E+1
5.70725E+2	6.12437E+5	6.12527E+5	-9.00000E+1
5.71218E+2	6.12477E+5	6.12677E+5	-2.00000E+2
5.71711E+2	6.12557E+5	6.12097E+5	4.60000E+2
5.72203E+2	6.12250E+5	6.12321E+5	-7.10000E+1
5.72696E+2	6.12251E+5	6.12467E+5	-2.16000E+2
5.73189E+2	6.11939E+5	6.12007E+5	-6.80000E+1
5.73682E+2	6.11938E+5	6.11768E+5	1.70000E+2
5.74174E+2	6.11915E+5	6.12210E+5	-2.95000E+2
5.74667E+2	6.11746E+5	6.11799E+5	-5.30000E+1
5.75160E+2	6.12031E+5	6.11904E+5	1.27000E+2
5.75652E+2	6.12172E+5	6.12007E+5	1.65000E+2
5.76145E+2	6.11759E+5	6.11778E+5	-1.90000E+1
5.76637E+2	6.11837E+5	6.12001E+5	-1.64000E+2
5.77130E+2	6.12112E+5	6.11829E+5	2.83000E+2
5.77622E+2	6.12271E+5	6.12078E+5	1.93000E+2
5.78115E+2	6.12361E+5	6.12413E+5	-5.20000E+1
5.78607E+2	6.12054E+5	6.12454E+5	-4.00000E+2
5.79099E+2	6.11880E+5	6.12374E+5	-4.94000E+2
5.79592E+2	6.28052E+5	6.28134E+5	-8.20000E+1
5.80084E+2	6.12475E+5	6.12271E+5	2.04000E+2
5.80576E+2	6.12086E+5	6.11979E+5	1.07000E+2
5.81068E+2	6.12024E+5	6.12327E+5	-3.03000E+2
5.81560E+2	6.12535E+5	6.12305E+5	2.30000E+2
5.82053E+2	6.12247E+5	6.11904E+5	3.43000E+2
5.82545E+2	6.12121E+5	6.12010E+5	1.11000E+2
5.83037E+2	6.11910E+5	6.11822E+5	8.80000E+1
5.83529E+2	6.12096E+5	6.11909E+5	1.87000E+2
5.84021E+2	6.12062E+5	6.11645E+5	4.17000E+2
5.84513E+2	6.11929E+5	6.11945E+5	-1.60000E+1
5.85005E+2	6.11668E+5	6.11618E+5	5.00000E+1
5.85497E+2	6.11467E+5	6.11415E+5	5.20000E+1
5.85989E+2	6.12004E+5	6.11545E+5	4.59000E+2
5.86480E+2	6.11324E+5	6.11468E+5	-1.44000E+2
5.86972E+2	6.11307E+5	6.11345E+5	-3.80000E+1
5.87464E+2	6.11265E+5	6.11180E+5	8.50000E+1
5.87956E+2	6.10909E+5	6.11026E+5	-1.17000E+2
5.88447E+2	6.11143E+5	6.11229E+5	-8.60000E+1
5.88939E+2	6.11182E+5	6.10972E+5	2.10000E+2
5.89431E+2	6.11227E+5	6.10771E+5	4.56000E+2
5.89922E+2	6.10865E+5	6.11140E+5	-2.75000E+2
5.90414E+2	6.10887E+5	6.11024E+5	-1.37000E+2
5.90905E+2	6.10978E+5	6.11082E+5	-1.04000E+2
5.91397E+2	6.10878E+5	6.10819E+5	5.90000E+1
5.91888E+2	6.10939E+5	6.11035E+5	-9.60000E+1
5.92380E+2	6.10631E+5	6.10887E+5	-2.56000E+2
5.92871E+2	6.10018E+5	6.10177E+5	-1.59000E+2
5.93362E+2	6.09872E+5	6.09995E+5	-1.23000E+2
5.93854E+2	6.10177E+5	6.09742E+5	4.35000E+2
5.94345E+2	6.10012E+5	6.10008E+5	4.00000E+0
5.94836E+2	6.09982E+5	6.10008E+5	-2.60000E+1
5.95327E+2	6.09882E+5	6.09859E+5	2.30000E+1
5.95818E+2	6.10330E+5	6.10390E+5	-6.00000E+1
5.96310E+2	6.10778E+5	6.11088E+5	-3.10000E+2
5.96801E+2	6.10791E+5	6.10788E+5	3.00000E+0
5.97292E+2	6.11112E+5	6.10989E+5	1.23000E+2
5.97783E+2	6.10731E+5	6.10952E+5	-2.21000E+2
5.98274E+2	6.11284E+5	6.10731E+5	5.53000E+2
5.98764E+2	6.11250E+5	6.11105E+5	1.45000E+2
5.99255E+2	6.12359E+5	6.11220E+5	1.13900E+3
5.99746E+2	6.11679E+5	6.11197E+5	4.82000E+2
6.00237E+2	6.12930E+5	6.11183E+5	1.74700E+3
6.00728E+2	6.11745E+5	6.11110E+5	6.35000E+2
6.01218E+2	6.12201E+5	6.11316E+5	8.85000E+2
6.01709E+2	6.12210E+5	6.11416E+5	7.94000E+2
6.02200E+2	6.13133E+5	6.11848E+5	1.28500E+3
6.02690E+2	6.12606E+5	6.11983E+5	6.23000E+2
6.03181E+2	6.12684E+5	6.11676E+5	1.00800E+3
6.03671E+2	6.12828E+5	6.11974E+5	8.54000E+2
6.04162E+2	6.12621E+5	6.11748E+5	8.73000E+2
6.04652E+2	6.12484E+5	6.11721E+5	7.63000E+2
6.05143E+2	6.12704E+5	6.11829E+5	8.75000E+2
6.05633E+2	6.11850E+5	6.11932E+5	-8.20000E+1
6.06123E+2	6.12100E+5	6.11534E+5	5.66000E+2
6.06614E+2	6.12630E+5	6.11528E+5	1.10200E+3
6.07104E+2	6.11950E+5	6.11250E+5	7.00000E+2
6.07594E+2	6.12578E+5	6.11626E+5	9.52000E+2
6.08084E+2	6.11912E+5	6.11707E+5	2.05000E+2
6.08574E+2	6.11613E+5	6.11811E+5	-1.98000E+2
6.09064E+2	6.11953E+5	6.11676E+5	2.77000E+2
6.09554E+2	6.11767E+5	6.11443E+5	3.24000E+2
6.10044E+2	6.12379E+5	6.11944E+5	4.35000E+2
6.10534E+2	6.11664E+5	6.11448E+5	2.16000E+2
6.11024E+2	6.11525E+5	6.11513E+5	1.20000E+1
6.11514E+2	6.11705E+5	6.11429E+5	2.76000E+2
6.12004E+2	6.11439E+5	6.11696E+5	-2.57000E+2
6.12493E+2	6.11572E+5	6.11750E+5	-1.78000E+2
6.12983E+2	6.11688E+5	6.11500E+5	1.88000E+2
6.13473E+2	6.11335E+5	6.11490E+5	-1.55000E+2
6.13962E+2	6.11681E+5	6.11603E+5	7.80000E+1
6.14452E+2	6.11807E+5	6.11930E+5	-1.23000E+2
6.14942E+2	6.11698E+5	6.11745E+5	-4.70000E+1
6.15431E+2	6.11672E+5	6.11799E+5	-1.27000E+2
6.15920E+2	6.11186E+5	6.11436E+5	-2.50000E+2
6.16410E+2	6.11567E+5	6.11679E+5	-1.12000E+2
6.16899E+2	6.11573E+5	6.11319E+5	2.54000E+2
6.17388E+2	6.11863E+5	6.11313E+5	5.50000E+2
6.17878E+2	6.11338E+5	6.11176E+5	1.62000E+2
6.18367E+2	6.11139E+5	6.11708E+5	-5.69000E+2
6.18856E+2	6.11779E+5	6.11387E+5	3.92000E+2
6.19345E+2	6.11662E+5	6.11068E+5	5.94000E+2
6.19834E+2	6.11349E+5	6.11363E+5	-1.40000E+1
6.20323E+2	6.11012E+5	6.11294E+5	-2.82000E+2
6.20812E+2	6.11315E+5	6.11425E+5	-1.10000E+2
6.21301E+2	6.11917E+5	6.11345E+5	5.72000E+2
6.21790E+2	6.12259E+5	6.11492E+5	7.67000E+2
6.22279E+2	6.12143E+5	6.11895E+5	2.48000E+2
6.22768E+2	6.11077E+5	6.10945E+5	1.32000E+2
6.23257E+2	6.11321E+5	6.11240E+5	8.10000E+1
6.23745E+2	6.11658E+5	6.11415E+5	2.43000E+2
6.24234E+2	6.11204E+5	6.10818E+5	3.86000E+2
6.24723E+2	6.11335E+5	6.11043E+5	2.92000E+2
6.25211E+2	6.11619E+5	6.11640E+5	-2.10000E+1
6.25700E+2	6.11458E+5	6.11247E+5	2.11000E+2
6.26188E+2	6.11355E+5	6.10592E+5	7.63000E+2
6.26677E+2	6.11069E+5	6.11032E+5	3.70000E+1
6.27165E+2	6.11533E+5	6.11065E+5	4.68000E+2
6.27653E+2	6.11056E+5	6.10541E+5	5.15000E+2
6.28142E+2	6.10859E+5	6.10688E+5	1.71000E+2
6.28630E+2	6.11041E+5	6.10794E+5	2.47000E+2
6.29118E+2	6.11254E+5	6.10619E+5	6.35000E+2
6.29606E+2	6.11033E+5	6.11117E+5	-8.40000E+1
6.30094E+2	6.10654E+5	6.10667E+5	-1.30000E+1
6.30582E+2	6.10833E+5	6.10820E+5	1.30000E+1
6.31070E+2	6.11082E+5	6.11220E+5	-1.38000E+2
6.31558E+2	6.10737E+5	6.10776E+5	-3.90000E+1
6.32046E+2	6.11433E+5	6.10830E+5	6.03000E+2
6.32534E+2	6.11184E+5	6.10680E+5	5.04000E+2
6.33022E+2	6.10849E+5	6.10669E+5	1.80000E+2
6.33510E+2	6.10999E+5	6.10274E+5	7.25000E+2
6.33997E+2	6.11719E+5	6.11014E+5	7.05000E+2
6.34485E+2	6.10854E+5	6.10831E+5	2.30000E+1
6.34973E+2	6.10839E+5	6.10670E+5	1.69000E+2
6.35460E+2	6.10820E+5	6.11072E+5	-2.52000E+2
6.35948E+2	6.09749E+5	6.09758E+5	-9.00000E+0
6.36435E+2	6.11033E+5	6.10586E+5	4.47000E+2
6.36922E+2	6.10597E+5	6.10248E+5	3.49000E+2
6.37410E+2	6.10876E+5	6.10617E+5	2.59000E+2
6.37897E+2	6.11112E+5	6.11120E+5	-8.00000E+0
6.38384E+2	6.10751E+5	6.10578E+5	1.73000E+2
6.38872E+2	6.10341E+5	6.10309E+5	3.20000E+1
6.39359E+2	6.10638E+5	6.10289E+5	3.49000E+2
6.39846E+2	6.10969E+5	6.10820E+5	1.49000E+2
6.40333E+2	6.11118E+5	6.11049E+5	6.90000E+1
6.40820E+2	6.10747E+5	6.10681E+5	6.60000E+1
6.41307E+2	6.10833E+5	6.11002E+5	-1.69000E+2
6.41794E+2	6.11007E+5	6.10654E+5	3.53000E+2
6.42280E+2	6.11478E+5	6.11274E+5	2.04000E+2
6.42767E+2	6.11041E+5	6.10921E+5	1.20000E+2
6.43254E+2	6.11147E+5	6.11108E+5	3.90000E+1
6.43741E+2	6.10768E+5	6.10957E+5	-1.89000E+2
6.44227E+2	6.10955E+5	6.11015E+5	-6.00000E+1
6.44714E+2	6.10943E+5	6.11043E+5	-1.00000E+2
6.45200E+2	6.11318E+5	6.11174E+5	1.44000E+2
6.45687E+2	6.11018E+5	6.11212E+5	-1.94000E+2
6.46173E+2	6.11196E+5	6.11655E+5	-4.59000E+2
6.46659E+2	6.11233E+5	6.10705E+5	5.28000E+2
6.47146E+2	6.10820E+5	6.10933E+5	-1.13000E+2
6.47632E+2	6.11222E+5	6.11012E+5	2.10000E+2
6.48118E+2	6.11000E+5	6.10886E+5	1.14000E+2
6.48604E+2	6.11291E+5	6.11266E+5	2.50000E+1
6.49090E+2	6.10819E+5	6.11509E+5	-6.90000E+2
6.49576E+2	6.11073E+5	6.11194E+5	-1.21000E+2
6.50062E+2	6.11131E+5	6.10916E+5	2.15000E+2
6.50548E+2	6.11286E+5	6.11335E+5	-4.90000E+1
6.51034E+2	6.11386E+5	6.11595E+5	-2.09000E+2
6.51520E+2	6.10860E+5	6.11007E+5	-1.47000E+2
6.52005E+2	6.11245E+5	6.11101E+5	1.44000E+2
6.52491E+2	6.11693E+5	6.11149E+5	5.44000E+2
6.52977E+2	6.10948E+5	6.10998E+5	-5.00000E+1
6.53462E+2	6.11243E+5	6.11361E+5	-1.18000E+2
6.53948E+2	6.10760E+5	6.10864E+5	-1.04000E+2
6.54433E+2	6.11024E+5	6.11140E+5	-1.16000E+2
6.54919E+2	6.11329E+5	6.11280E+5	4.90000E+1
6.55404E+2	6.11436E+5	6.11310E+5	1.26000E+2
6.55889E+2	6.11441E+5	6.11442E+5	-1.00000E+0
6.56375E+2	6.10759E+5	6.11011E+5	-2.52000E+2
6.56860E+2	6.11134E+5	6.11179E+5	-4.50000E+1
6.57345E+2	6.11124E+5	6.11238E+5	-1.14000E+2
6.57830E+2	6.11169E+5	6.11206E+5	-3.70000E+1
6.58315E+2	6.11587E+5	6.11285E+5	3.02000E+2
6.58800E+2	6.11229E+5	6.11262E+5	-3.30000E+1
6.59285E+2	6.11254E+5	6.11364E+5	-1.10000E+2
6.59770E+2	6.11392E+5	6.11316E+5	7.60000E+1
6.60254E+2	6.11325E+5	6.11352E+5	-2.70000E+1
6.60739E+2	6.11083E+5	6.11064E+5	1.90000E+1
6.61224E+2	6.11116E+5	6.11184E+5	-6.80000E+1
6.61708E+2	6.11171E+5	6.11571E+5	-4.00000E+2
6.62193E+2	6.11514E+5	6.11292E+5	2.22000E+2
6.62677E+2	6.11599E+5	6.11572E+5	2.70000E+1
6.63162E+2	6.11532E+5	6.11575E+5	-4.30000E+1
6.63646E+2	6.11543E+5	6.11371E+5	1.72000E+2
6.64130E+2	6.11751E+5	6.11673E+5	7.80000E+1
6.64615E+2	6.11580E+5	6.11580E+5	0.00000E+0
6.65099E+2	6.12337E+5	6.12011E+5	3.26000E+2
6.65583E+2	6.11988E+5	6.11967E+5	2.10000E+1
6.66067E+2	6.12028E+5	6.11859E+5	1.69000E+2
6.66551E+2	6.12134E+5	6.12153E+5	-1.90000E+1
6.67035E+2	6.11746E+5	6.12148E+5	-4.02000E+2
6.67519E+2	6.12535E+5	6.12648E+5	-1.13000E+2
6.68002E+2	6.12433E+5	6.12385E+5	4.80000E+1
6.68486E+2	6.12478E+5	6.12552E+5	-7.40000E+1
6.68970E+2	6.12560E+5	6.12471E+5	8.90000E+1
6.69453E+2	6.12655E+5	6.12651E+5	4.00000E+0
6.69937E+2	6.12554E+5	6.12451E+5	1.03000E+2
6.70420E+2	6.12713E+5	6.12522E+5	1.91000E+2
6.70904E+2	6.13074E+5	6.12726E+5	3.48000E+2
6.71387E+2	6.13412E+5	6.12797E+5	6.15000E+2
6.71871E+2	6.13026E+5	6.13063E+5	-3.70000E+1
6.72354E+2	6.12921E+5	6.13291E+5	-3.70000E+2
6.72837E+2	6.12937E+5	6.13044E+5	-1.07000E+2
6.73320E+2	6.13048E+5	6.12977E+5	7.10000E+1
6.73803E+2	6.12833E+5	6.12732E+5	1.01000E+2
6.74286E+2	6.13026E+5	6.12772E+5	2.54000E+2
6.74769E+2	6.12805E+5	6.13190E+5	-3.85000E+2
[AndorNewton]
[Detectors]