LUNA Datafile
Version = 2.0
Scan = Spectrometer 

[Scan info]
Users: sbn, ttl,ck, jl
Ion name: darrow red
Ion mass: 304.0 amu
Ion charge: 1

Laser used: Laser 1
Excitation wavelength: 514.0 nm
Laser filter OD: 1.5
Laser power: 0.20 mW

Flourescence filter type: Longpass filter
Filter wavelength: 514.0

[Consys]
No Consys info found
[Consys]

[Timing]
No Timing info found
[Timing]

[Data file info]


Time elapsed (min): 8.33333
Pictures taken: 4200
[Data file info]
[Scan info]

[Notes]
-176oC
[Notes]

[Detectors]
Wavelength	Bg	Sig	Ref

[AndorNewton]
5.10002E+2	2.18100E+6	2.17844E+6	2.56100E+3
5.10499E+2	2.16418E+6	2.16269E+6	1.49200E+3
5.10995E+2	2.15982E+6	2.15761E+6	2.21400E+3
5.11491E+2	2.15696E+6	2.15489E+6	2.07400E+3
5.11987E+2	2.16043E+6	2.15887E+6	1.56000E+3
5.12483E+2	2.15889E+6	2.15776E+6	1.12600E+3
5.12979E+2	2.15708E+6	2.15495E+6	2.13100E+3
5.13475E+2	2.15511E+6	2.15569E+6	-5.85000E+2
5.13971E+2	2.15486E+6	2.15193E+6	2.93000E+3
5.14467E+2	2.15967E+6	2.15778E+6	1.89000E+3
5.14963E+2	2.15316E+6	2.15095E+6	2.21200E+3
5.15459E+2	2.15304E+6	2.15152E+6	1.51600E+3
5.15955E+2	2.15149E+6	2.14920E+6	2.29200E+3
5.16451E+2	2.15206E+6	2.14965E+6	2.41300E+3
5.16947E+2	2.15318E+6	2.15152E+6	1.66600E+3
5.17443E+2	2.15541E+6	2.15285E+6	2.56400E+3
5.17939E+2	2.15508E+6	2.15311E+6	1.97600E+3
5.18435E+2	2.15585E+6	2.15266E+6	3.19300E+3
5.18930E+2	2.15338E+6	2.15172E+6	1.66000E+3
5.19426E+2	2.15284E+6	2.15090E+6	1.94700E+3
5.19922E+2	2.15102E+6	2.14853E+6	2.49600E+3
5.20418E+2	2.15049E+6	2.14864E+6	1.85100E+3
5.20913E+2	2.14896E+6	2.14626E+6	2.69600E+3
5.21409E+2	2.14810E+6	2.14617E+6	1.92800E+3
5.21905E+2	2.14755E+6	2.14473E+6	2.82400E+3
5.22400E+2	2.14641E+6	2.14390E+6	2.51100E+3
5.22896E+2	2.14665E+6	2.14450E+6	2.14700E+3
5.23392E+2	2.14557E+6	2.14297E+6	2.60200E+3
5.23887E+2	2.14567E+6	2.14366E+6	2.01900E+3
5.24383E+2	2.14552E+6	2.14358E+6	1.94700E+3
5.24878E+2	2.14566E+6	2.14336E+6	2.29100E+3
5.25374E+2	2.14636E+6	2.14429E+6	2.07500E+3
5.25869E+2	2.14627E+6	2.14355E+6	2.72000E+3
5.26365E+2	2.14693E+6	2.14423E+6	2.69300E+3
5.26860E+2	2.14695E+6	2.14467E+6	2.27500E+3
5.27355E+2	2.14692E+6	2.14467E+6	2.24900E+3
5.27851E+2	2.14796E+6	2.14551E+6	2.45500E+3
5.28346E+2	2.14746E+6	2.14509E+6	2.36600E+3
5.28841E+2	2.14780E+6	2.14588E+6	1.92000E+3
5.29336E+2	2.14844E+6	2.14653E+6	1.91100E+3
5.29832E+2	2.14752E+6	2.14560E+6	1.92200E+3
5.30327E+2	2.14865E+6	2.14663E+6	2.02200E+3
5.30822E+2	2.14716E+6	2.14493E+6	2.23300E+3
5.31317E+2	2.14841E+6	2.14582E+6	2.59100E+3
5.31812E+2	2.14732E+6	2.14469E+6	2.62600E+3
5.32308E+2	2.14714E+6	2.14463E+6	2.51700E+3
5.32803E+2	2.14755E+6	2.14525E+6	2.29900E+3
5.33298E+2	2.14624E+6	2.14306E+6	3.18700E+3
5.33793E+2	2.14748E+6	2.14439E+6	3.08700E+3
5.34288E+2	2.14705E+6	2.14376E+6	3.28700E+3
5.34782E+2	2.14709E+6	2.14316E+6	3.93100E+3
5.35277E+2	2.14787E+6	2.14370E+6	4.16800E+3
5.35772E+2	2.14793E+6	2.14396E+6	3.97500E+3
5.36267E+2	2.14842E+6	2.14337E+6	5.05400E+3
5.36762E+2	2.14755E+6	2.14347E+6	4.07500E+3
5.37257E+2	2.14839E+6	2.14388E+6	4.51200E+3
5.37752E+2	2.14748E+6	2.14388E+6	3.60200E+3
5.38246E+2	2.14872E+6	2.14552E+6	3.20000E+3
5.38741E+2	2.14706E+6	2.14380E+6	3.26000E+3
5.39236E+2	2.15001E+6	2.14700E+6	3.01000E+3
5.39730E+2	2.20587E+6	2.20170E+6	4.17300E+3
5.40225E+2	2.15170E+6	2.14435E+6	7.35100E+3
5.40720E+2	2.15250E+6	2.14375E+6	8.75800E+3
5.41214E+2	2.15699E+6	2.14410E+6	1.28930E+4
5.41709E+2	2.16017E+6	2.14413E+6	1.60400E+4
5.42203E+2	2.16942E+6	2.14459E+6	2.48270E+4
5.42698E+2	2.18211E+6	2.14404E+6	3.80730E+4
5.43192E+2	2.19500E+6	2.14364E+6	5.13610E+4
5.43686E+2	2.20475E+6	2.14402E+6	6.07360E+4
5.44181E+2	2.20719E+6	2.14306E+6	6.41230E+4
5.44675E+2	2.20395E+6	2.14336E+6	6.05920E+4
5.45169E+2	2.19300E+6	2.14193E+6	5.10730E+4
5.45664E+2	2.18587E+6	2.14204E+6	4.38370E+4
5.46158E+2	2.18237E+6	2.14247E+6	3.99000E+4
5.46652E+2	2.16543E+6	2.14148E+6	2.39510E+4
5.47146E+2	2.16460E+6	2.14149E+6	2.31120E+4
5.47640E+2	2.16409E+6	2.14096E+6	2.31300E+4
5.48134E+2	2.15794E+6	2.14164E+6	1.63080E+4
5.48628E+2	2.15245E+6	2.14124E+6	1.12040E+4
5.49122E+2	2.15081E+6	2.14034E+6	1.04740E+4
5.49617E+2	2.14948E+6	2.14015E+6	9.33200E+3
5.50110E+2	2.15227E+6	2.13958E+6	1.26920E+4
5.50604E+2	2.15144E+6	2.13942E+6	1.20170E+4
5.51098E+2	2.15135E+6	2.14015E+6	1.11960E+4
5.51592E+2	2.14800E+6	2.13932E+6	8.67700E+3
5.52086E+2	2.15242E+6	2.13958E+6	1.28440E+4
5.52580E+2	2.15123E+6	2.13781E+6	1.34250E+4
5.53074E+2	2.14871E+6	2.13691E+6	1.18020E+4
5.53567E+2	2.14938E+6	2.13788E+6	1.15020E+4
5.54061E+2	2.14812E+6	2.13657E+6	1.15480E+4
5.54555E+2	2.15149E+6	2.13699E+6	1.44970E+4
5.55048E+2	2.15031E+6	2.13668E+6	1.36340E+4
5.55542E+2	2.14947E+6	2.13656E+6	1.29090E+4
5.56035E+2	2.15119E+6	2.13801E+6	1.31770E+4
5.56529E+2	2.15378E+6	2.13949E+6	1.42960E+4
5.57022E+2	2.15695E+6	2.13987E+6	1.70880E+4
5.57516E+2	2.15868E+6	2.14022E+6	1.84600E+4
5.58009E+2	2.15760E+6	2.14014E+6	1.74610E+4
5.58502E+2	2.15789E+6	2.14038E+6	1.75170E+4
5.58996E+2	2.16075E+6	2.14119E+6	1.95640E+4
5.59489E+2	2.16348E+6	2.14140E+6	2.20720E+4
5.59982E+2	2.16225E+6	2.14046E+6	2.17960E+4
5.60476E+2	2.16303E+6	2.14085E+6	2.21770E+4
5.60969E+2	2.16891E+6	2.14449E+6	2.44220E+4
5.61462E+2	2.16787E+6	2.14276E+6	2.51130E+4
5.61955E+2	2.16941E+6	2.14195E+6	2.74670E+4
5.62448E+2	2.16975E+6	2.14218E+6	2.75730E+4
5.62941E+2	2.16449E+6	2.14228E+6	2.22130E+4
5.63434E+2	2.16507E+6	2.14178E+6	2.32890E+4
5.63927E+2	2.16876E+6	2.14196E+6	2.68040E+4
5.64420E+2	2.16217E+6	2.14313E+6	1.90380E+4
5.64913E+2	2.16020E+6	2.14440E+6	1.57970E+4
5.65406E+2	2.15343E+6	2.14233E+6	1.11030E+4
5.65898E+2	2.15769E+6	2.14264E+6	1.50540E+4
5.66391E+2	2.15408E+6	2.14206E+6	1.20220E+4
5.66884E+2	2.15817E+6	2.14211E+6	1.60600E+4
5.67376E+2	2.15343E+6	2.14221E+6	1.12250E+4
5.67869E+2	2.15415E+6	2.14279E+6	1.13550E+4
5.68362E+2	2.15264E+6	2.14239E+6	1.02520E+4
5.68854E+2	2.15164E+6	2.14280E+6	8.83300E+3
5.69347E+2	2.15235E+6	2.14250E+6	9.85300E+3
5.69839E+2	2.15296E+6	2.14300E+6	9.96600E+3
5.70332E+2	2.14988E+6	2.14243E+6	7.44900E+3
5.70824E+2	2.14756E+6	2.14152E+6	6.03700E+3
5.71316E+2	2.14946E+6	2.14207E+6	7.39500E+3
5.71809E+2	2.14898E+6	2.14219E+6	6.78600E+3
5.72301E+2	2.15145E+6	2.14247E+6	8.98400E+3
5.72793E+2	2.15331E+6	2.14242E+6	1.08920E+4
5.73285E+2	2.15118E+6	2.14154E+6	9.63500E+3
5.73778E+2	2.15078E+6	2.14171E+6	9.06800E+3
5.74270E+2	2.15082E+6	2.14175E+6	9.06500E+3
5.74762E+2	2.14897E+6	2.14096E+6	8.00900E+3
5.75254E+2	2.15173E+6	2.14151E+6	1.02140E+4
5.75746E+2	2.15202E+6	2.14198E+6	1.00410E+4
5.76238E+2	2.15281E+6	2.14125E+6	1.15640E+4
5.76729E+2	2.15463E+6	2.14273E+6	1.19010E+4
5.77221E+2	2.15060E+6	2.14141E+6	9.19300E+3
5.77713E+2	2.15502E+6	2.14212E+6	1.28950E+4
5.78205E+2	2.15298E+6	2.14096E+6	1.20200E+4
5.78697E+2	2.15262E+6	2.14131E+6	1.13170E+4
5.79188E+2	2.15324E+6	2.14167E+6	1.15740E+4
5.79680E+2	2.15704E+6	2.14042E+6	1.66210E+4
5.80172E+2	2.15738E+6	2.14215E+6	1.52270E+4
5.80663E+2	2.15894E+6	2.14113E+6	1.78030E+4
5.81155E+2	2.15874E+6	2.14131E+6	1.74330E+4
5.81646E+2	2.15760E+6	2.14029E+6	1.73160E+4
5.82137E+2	2.15647E+6	2.14176E+6	1.47120E+4
5.82629E+2	2.16109E+6	2.14061E+6	2.04780E+4
5.83120E+2	2.15860E+6	2.14166E+6	1.69330E+4
5.83611E+2	2.15833E+6	2.14078E+6	1.75480E+4
5.84103E+2	2.15494E+6	2.14124E+6	1.37010E+4
5.84594E+2	2.15394E+6	2.13992E+6	1.40260E+4
5.85085E+2	2.15611E+6	2.14018E+6	1.59370E+4
5.85576E+2	2.15852E+6	2.14194E+6	1.65820E+4
5.86067E+2	2.15545E+6	2.14005E+6	1.54050E+4
5.86558E+2	2.15306E+6	2.14032E+6	1.27400E+4
5.87049E+2	2.15785E+6	2.14002E+6	1.78310E+4
5.87540E+2	2.15407E+6	2.13986E+6	1.42060E+4
5.88031E+2	2.15535E+6	2.13999E+6	1.53570E+4
5.88522E+2	2.15353E+6	2.13925E+6	1.42870E+4
5.89012E+2	2.15341E+6	2.13898E+6	1.44380E+4
5.89503E+2	2.15001E+6	2.13967E+6	1.03420E+4
5.89994E+2	2.15213E+6	2.13982E+6	1.23110E+4
5.90485E+2	2.15138E+6	2.13901E+6	1.23720E+4
5.90975E+2	2.15070E+6	2.13928E+6	1.14250E+4
5.91466E+2	2.15164E+6	2.13999E+6	1.16520E+4
5.91956E+2	2.15334E+6	2.13893E+6	1.44110E+4
5.92447E+2	2.15286E+6	2.13926E+6	1.36010E+4
5.92937E+2	2.15293E+6	2.13921E+6	1.37230E+4
5.93427E+2	2.15093E+6	2.13914E+6	1.17880E+4
5.93918E+2	2.15069E+6	2.13793E+6	1.27610E+4
5.94408E+2	2.15141E+6	2.13935E+6	1.20640E+4
5.94898E+2	2.15251E+6	2.13868E+6	1.38300E+4
5.95388E+2	2.15030E+6	2.13836E+6	1.19460E+4
5.95878E+2	2.15196E+6	2.14075E+6	1.12070E+4
5.96368E+2	2.14593E+6	2.13614E+6	9.78800E+3
5.96858E+2	2.14823E+6	2.13891E+6	9.32100E+3
5.97348E+2	2.14813E+6	2.13922E+6	8.91400E+3
5.97838E+2	2.14697E+6	2.13891E+6	8.06400E+3
5.98328E+2	2.14798E+6	2.13986E+6	8.12100E+3
5.98818E+2	2.14961E+6	2.13877E+6	1.08350E+4
5.99308E+2	2.14574E+6	2.13774E+6	7.99800E+3
5.99797E+2	2.14631E+6	2.13829E+6	8.02400E+3
6.00287E+2	2.14436E+6	2.13908E+6	5.28700E+3
6.00777E+2	2.14683E+6	2.13996E+6	6.86900E+3
6.01266E+2	2.14851E+6	2.13842E+6	1.00880E+4
6.01756E+2	2.14598E+6	2.13923E+6	6.74500E+3
6.02245E+2	2.14634E+6	2.13900E+6	7.34100E+3
6.02735E+2	2.14733E+6	2.14098E+6	6.35100E+3
6.03224E+2	2.14971E+6	2.14014E+6	9.57600E+3
6.03713E+2	2.14934E+6	2.14007E+6	9.26900E+3
6.04203E+2	2.14712E+6	2.13991E+6	7.20700E+3
6.04692E+2	2.14551E+6	2.13989E+6	5.62500E+3
6.05181E+2	2.14762E+6	2.14091E+6	6.70700E+3
6.05670E+2	2.14752E+6	2.14041E+6	7.11500E+3
6.06159E+2	2.14616E+6	2.13981E+6	6.34700E+3
6.06648E+2	2.14809E+6	2.14113E+6	6.95800E+3
6.07137E+2	2.14621E+6	2.14000E+6	6.21200E+3
6.07626E+2	2.14527E+6	2.13942E+6	5.84800E+3
6.08115E+2	2.14700E+6	2.14015E+6	6.85100E+3
6.08604E+2	2.14730E+6	2.13976E+6	7.54800E+3
6.09092E+2	2.14598E+6	2.14084E+6	5.13600E+3
6.09581E+2	2.14491E+6	2.14040E+6	4.51000E+3
6.10070E+2	2.14710E+6	2.14119E+6	5.91400E+3
6.10558E+2	2.14600E+6	2.14069E+6	5.30400E+3
6.11047E+2	2.14837E+6	2.14134E+6	7.03800E+3
6.11535E+2	2.14565E+6	2.14153E+6	4.12100E+3
6.12024E+2	2.14338E+6	2.13934E+6	4.03400E+3
6.12512E+2	2.14430E+6	2.14130E+6	3.00200E+3
6.13000E+2	2.14504E+6	2.14126E+6	3.78100E+3
6.13489E+2	2.14501E+6	2.14039E+6	4.62200E+3
6.13977E+2	2.14634E+6	2.14115E+6	5.19200E+3
6.14465E+2	2.14380E+6	2.13855E+6	5.24200E+3
6.14953E+2	2.14594E+6	2.14065E+6	5.29100E+3
6.15441E+2	2.14347E+6	2.14090E+6	2.56200E+3
6.15929E+2	2.14312E+6	2.14248E+6	6.48000E+2
6.16417E+2	2.14551E+6	2.14178E+6	3.73300E+3
6.16905E+2	2.14025E+6	2.14232E+6	-2.06800E+3
6.17393E+2	2.14038E+6	2.14061E+6	-2.32000E+2
6.17881E+2	2.14328E+6	2.14152E+6	1.76200E+3
6.18368E+2	2.14336E+6	2.14069E+6	2.66900E+3
6.18856E+2	2.14403E+6	2.14173E+6	2.30300E+3
6.19344E+2	2.14326E+6	2.14056E+6	2.69700E+3
6.19831E+2	2.14476E+6	2.14130E+6	3.45700E+3
6.20319E+2	2.14498E+6	2.14142E+6	3.55100E+3
6.20806E+2	2.14350E+6	2.14085E+6	2.64600E+3
6.21293E+2	2.14352E+6	2.14121E+6	2.30600E+3
6.21781E+2	2.14372E+6	2.14072E+6	3.00300E+3
6.22268E+2	2.14400E+6	2.14145E+6	2.54700E+3
6.22755E+2	2.14407E+6	2.14129E+6	2.77300E+3
6.23242E+2	2.14522E+6	2.14263E+6	2.59100E+3
6.23729E+2	2.14475E+6	2.14249E+6	2.26200E+3
6.24216E+2	2.14473E+6	2.14169E+6	3.03800E+3
6.24703E+2	2.14553E+6	2.14239E+6	3.13900E+3
6.25190E+2	2.14465E+6	2.14203E+6	2.62200E+3
6.25677E+2	2.14680E+6	2.14358E+6	3.22300E+3
6.26164E+2	2.14631E+6	2.14361E+6	2.69900E+3
6.26651E+2	2.14643E+6	2.14391E+6	2.51700E+3
6.27137E+2	2.14705E+6	2.14466E+6	2.39100E+3
6.27624E+2	2.14620E+6	2.14385E+6	2.35400E+3
6.28111E+2	2.14800E+6	2.14532E+6	2.67700E+3
6.28597E+2	2.14767E+6	2.14522E+6	2.45900E+3
6.29084E+2	2.14808E+6	2.14494E+6	3.14100E+3
6.29570E+2	2.14791E+6	2.14528E+6	2.63200E+3
6.30056E+2	2.14841E+6	2.14575E+6	2.65900E+3
6.30543E+2	2.15444E+6	2.15166E+6	2.78100E+3
6.31029E+2	2.14842E+6	2.14583E+6	2.59500E+3
6.31515E+2	2.14864E+6	2.14649E+6	2.14500E+3
6.32001E+2	2.14882E+6	2.14622E+6	2.60200E+3
6.32487E+2	2.14983E+6	2.14697E+6	2.85800E+3
6.32973E+2	2.15021E+6	2.14726E+6	2.95000E+3
6.33459E+2	2.14962E+6	2.14702E+6	2.60500E+3
6.33945E+2	2.14977E+6	2.14676E+6	3.01600E+3
6.34430E+2	2.14963E+6	2.14646E+6	3.16800E+3
6.34916E+2	2.14960E+6	2.14682E+6	2.78400E+3
6.35402E+2	2.14957E+6	2.14719E+6	2.38500E+3
[AndorNewton]
[Detectors]