LUNA Datafile
Version = 2.0
Scan = Spectrometer 

[Scan info]
Users: sbn, ttl,ck, jl
Ion name: ox170
Ion mass: 0.0 amu
Ion charge: 1

Laser used: Laser 1
Excitation wavelength: 561.0 nm
Laser filter OD: 1.5
Laser power: 0.20 mW

Flourescence filter type: Longpass filter
Filter wavelength: 561.0

[Consys]
No Consys info found
[Consys]

[Timing]
No Timing info found
[Timing]

[Data file info]



[Data file info]
[Scan info]

[Notes]
-176oC
[Notes]

[Detectors]
Wavelength	Bg	Sig	Ref

[AndorNewton]
5.50000E+2	2.90465E+6	2.90407E+6	5.75000E+2
5.50494E+2	2.88255E+6	2.88257E+6	-2.30000E+1
5.50988E+2	2.87689E+6	2.87692E+6	-3.50000E+1
5.51482E+2	2.87294E+6	2.87221E+6	7.29000E+2
5.51976E+2	2.87794E+6	2.87753E+6	4.13000E+2
5.52470E+2	2.87587E+6	2.87589E+6	-1.80000E+1
5.52963E+2	2.87329E+6	2.87285E+6	4.47000E+2
5.53457E+2	2.87056E+6	2.86988E+6	6.78000E+2
5.53951E+2	2.86983E+6	2.87003E+6	-2.05000E+2
5.54445E+2	2.87013E+6	2.87102E+6	-8.87000E+2
5.54939E+2	2.87013E+6	2.86761E+6	2.51600E+3
5.55433E+2	2.86812E+6	2.86740E+6	7.20000E+2
5.55926E+2	2.86551E+6	2.86608E+6	-5.75000E+2
5.56420E+2	2.86592E+6	2.86568E+6	2.44000E+2
5.56914E+2	2.86963E+6	2.86778E+6	1.84800E+3
5.57407E+2	2.87026E+6	2.86999E+6	2.64000E+2
5.57901E+2	2.87068E+6	2.87064E+6	4.00000E+1
5.58394E+2	2.87041E+6	2.87003E+6	3.73000E+2
5.58888E+2	2.86883E+6	2.86783E+6	1.00200E+3
5.59381E+2	2.86710E+6	2.86745E+6	-3.50000E+2
5.59875E+2	2.86509E+6	2.86474E+6	3.47000E+2
5.60368E+2	2.86416E+6	2.86416E+6	2.00000E+0
5.60862E+2	2.86154E+6	2.86160E+6	-6.20000E+1
5.61355E+2	2.86091E+6	2.86057E+6	3.37000E+2
5.61849E+2	2.86003E+6	2.86033E+6	-2.98000E+2
5.62342E+2	2.85875E+6	2.85848E+6	2.69000E+2
5.62835E+2	2.85852E+6	2.85878E+6	-2.62000E+2
5.63329E+2	2.85792E+6	2.85774E+6	1.77000E+2
5.63822E+2	2.85737E+6	2.85822E+6	-8.57000E+2
5.64315E+2	2.85848E+6	2.85824E+6	2.42000E+2
5.64809E+2	2.85754E+6	2.85764E+6	-1.01000E+2
5.65302E+2	2.85855E+6	2.85842E+6	1.36000E+2
5.65795E+2	2.85794E+6	2.85826E+6	-3.17000E+2
5.66288E+2	2.85954E+6	2.85891E+6	6.28000E+2
5.66781E+2	2.85988E+6	2.85898E+6	9.05000E+2
5.67274E+2	2.85920E+6	2.85936E+6	-1.68000E+2
5.67767E+2	2.86075E+6	2.86038E+6	3.76000E+2
5.68260E+2	2.85963E+6	2.85969E+6	-5.70000E+1
5.68753E+2	2.86071E+6	2.86068E+6	2.40000E+1
5.69246E+2	2.86172E+6	2.86163E+6	8.90000E+1
5.69739E+2	2.86254E+6	2.86166E+6	8.82000E+2
5.70232E+2	2.86156E+6	2.86078E+6	7.81000E+2
5.70725E+2	2.85908E+6	2.85969E+6	-6.10000E+2
5.71218E+2	2.86037E+6	2.85990E+6	4.77000E+2
5.71711E+2	2.85908E+6	2.85899E+6	9.20000E+1
5.72203E+2	2.85964E+6	2.85931E+6	3.36000E+2
5.72696E+2	2.86085E+6	2.85954E+6	1.31400E+3
5.73189E+2	2.85742E+6	2.85754E+6	-1.17000E+2
5.73682E+2	2.85773E+6	2.85795E+6	-2.22000E+2
5.74174E+2	2.85818E+6	2.85793E+6	2.48000E+2
5.74667E+2	2.85707E+6	2.85663E+6	4.38000E+2
5.75160E+2	2.85802E+6	2.85742E+6	6.01000E+2
5.75652E+2	2.85868E+6	2.85766E+6	1.01700E+3
5.76145E+2	2.85742E+6	2.85704E+6	3.82000E+2
5.76637E+2	2.85824E+6	2.85767E+6	5.70000E+2
5.77130E+2	2.85837E+6	2.85884E+6	-4.71000E+2
5.77622E+2	2.85877E+6	2.85834E+6	4.32000E+2
5.78115E+2	2.86091E+6	2.85962E+6	1.28700E+3
5.78607E+2	2.86029E+6	2.85816E+6	2.13300E+3
5.79099E+2	2.85991E+6	2.85771E+6	2.20000E+3
5.79592E+2	2.93597E+6	2.93378E+6	2.18700E+3
5.80084E+2	2.86226E+6	2.86007E+6	2.18500E+3
5.80576E+2	2.86228E+6	2.85838E+6	3.90800E+3
5.81068E+2	2.86299E+6	2.85826E+6	4.73600E+3
5.81560E+2	2.86414E+6	2.85870E+6	5.44100E+3
5.82053E+2	2.87012E+6	2.85813E+6	1.19870E+4
5.82545E+2	2.87260E+6	2.85778E+6	1.48170E+4
5.83037E+2	2.88024E+6	2.85794E+6	2.22990E+4
5.83529E+2	2.88667E+6	2.85742E+6	2.92500E+4
5.84021E+2	2.89443E+6	2.85771E+6	3.67240E+4
5.84513E+2	2.88934E+6	2.85718E+6	3.21580E+4
5.85005E+2	2.88243E+6	2.85553E+6	2.69040E+4
5.85497E+2	2.88079E+6	2.85567E+6	2.51150E+4
5.85989E+2	2.87425E+6	2.85638E+6	1.78650E+4
5.86480E+2	2.86918E+6	2.85453E+6	1.46440E+4
5.86972E+2	2.86753E+6	2.85461E+6	1.29250E+4
5.87464E+2	2.86321E+6	2.85425E+6	8.96000E+3
5.87956E+2	2.86295E+6	2.85330E+6	9.64200E+3
5.88447E+2	2.85912E+6	2.85428E+6	4.84100E+3
5.88939E+2	2.86782E+6	2.86386E+6	3.95900E+3
5.89431E+2	2.85692E+6	2.85359E+6	3.32800E+3
5.89922E+2	2.85635E+6	2.85269E+6	3.66400E+3
5.90414E+2	2.85585E+6	2.85244E+6	3.40800E+3
5.90905E+2	2.85666E+6	2.85263E+6	4.03100E+3
5.91397E+2	2.85646E+6	2.85193E+6	4.52800E+3
5.91888E+2	2.85544E+6	2.85161E+6	3.83100E+3
5.92380E+2	2.85339E+6	2.85109E+6	2.29500E+3
5.92871E+2	2.85405E+6	2.84931E+6	4.74700E+3
5.93362E+2	2.85180E+6	2.84829E+6	3.51200E+3
5.93854E+2	2.85260E+6	2.84872E+6	3.87700E+3
5.94345E+2	2.85228E+6	2.84936E+6	2.91900E+3
5.94836E+2	2.85180E+6	2.84847E+6	3.33100E+3
5.95327E+2	2.85283E+6	2.84938E+6	3.44500E+3
5.95818E+2	2.85302E+6	2.85055E+6	2.47100E+3
5.96310E+2	2.85462E+6	2.85347E+6	1.15500E+3
5.96801E+2	2.85617E+6	2.85269E+6	3.47100E+3
5.97292E+2	2.85588E+6	2.85319E+6	2.68900E+3
5.97783E+2	2.85565E+6	2.85589E+6	-2.46000E+2
5.98274E+2	2.85692E+6	2.85402E+6	2.89800E+3
5.98764E+2	2.85664E+6	2.85340E+6	3.24600E+3
5.99255E+2	2.85772E+6	2.85490E+6	2.81800E+3
5.99746E+2	2.85632E+6	2.85338E+6	2.93200E+3
6.00237E+2	2.85856E+6	2.85453E+6	4.03300E+3
6.00728E+2	2.85945E+6	2.85506E+6	4.39700E+3
6.01218E+2	2.86006E+6	2.85557E+6	4.49400E+3
6.01709E+2	2.86185E+6	2.85572E+6	6.13700E+3
6.02200E+2	2.86138E+6	2.85500E+6	6.37900E+3
6.02690E+2	2.86442E+6	2.85650E+6	7.92100E+3
6.03181E+2	2.86748E+6	2.85561E+6	1.18670E+4
6.03671E+2	2.86650E+6	2.85604E+6	1.04550E+4
6.04162E+2	2.86788E+6	2.85617E+6	1.17150E+4
6.04652E+2	2.86868E+6	2.85617E+6	1.25090E+4
6.05143E+2	2.86763E+6	2.85622E+6	1.14130E+4
6.05633E+2	2.86700E+6	2.85765E+6	9.35500E+3
6.06123E+2	2.86651E+6	2.85641E+6	1.01030E+4
6.06614E+2	2.86723E+6	2.85651E+6	1.07170E+4
6.07104E+2	2.86246E+6	2.85534E+6	7.12000E+3
6.07594E+2	2.86548E+6	2.85647E+6	9.00800E+3
6.08084E+2	2.86581E+6	2.85587E+6	9.94100E+3
6.08574E+2	2.86327E+6	2.85678E+6	6.48700E+3
6.09064E+2	2.86169E+6	2.85727E+6	4.42100E+3
6.09554E+2	2.85975E+6	2.85698E+6	2.77100E+3
6.10044E+2	2.85942E+6	2.85607E+6	3.35900E+3
6.10534E+2	2.86004E+6	2.85585E+6	4.18500E+3
6.11024E+2	2.86189E+6	2.85593E+6	5.96100E+3
6.11514E+2	2.85813E+6	2.85518E+6	2.95400E+3
6.12004E+2	2.85745E+6	2.85580E+6	1.65100E+3
6.12493E+2	2.85825E+6	2.85525E+6	2.99100E+3
6.12983E+2	2.85738E+6	2.85554E+6	1.83700E+3
6.13473E+2	2.85920E+6	2.85541E+6	3.79000E+3
6.13962E+2	2.85713E+6	2.85472E+6	2.41600E+3
6.14452E+2	2.85854E+6	2.85430E+6	4.24100E+3
6.14942E+2	2.85826E+6	2.85554E+6	2.71600E+3
6.15431E+2	2.85810E+6	2.85597E+6	2.12700E+3
6.15920E+2	2.85690E+6	2.85520E+6	1.70000E+3
6.16410E+2	2.85787E+6	2.85571E+6	2.16900E+3
6.16899E+2	2.85714E+6	2.85514E+6	2.00500E+3
6.17388E+2	2.85722E+6	2.85610E+6	1.11800E+3
6.17878E+2	2.85604E+6	2.85418E+6	1.86200E+3
6.18367E+2	2.85715E+6	2.85430E+6	2.84700E+3
6.18856E+2	2.85647E+6	2.85496E+6	1.51200E+3
6.19345E+2	2.85483E+6	2.85377E+6	1.06200E+3
6.19834E+2	2.85579E+6	2.85444E+6	1.34600E+3
6.20323E+2	2.85543E+6	2.85492E+6	5.13000E+2
6.20812E+2	2.85659E+6	2.85388E+6	2.70600E+3
6.21301E+2	2.85648E+6	2.85409E+6	2.38800E+3
6.21790E+2	2.85682E+6	2.85640E+6	4.26000E+2
6.22279E+2	2.85836E+6	2.85699E+6	1.36900E+3
6.22768E+2	2.85536E+6	2.85332E+6	2.04000E+3
6.23257E+2	2.85577E+6	2.85338E+6	2.39700E+3
6.23745E+2	2.85709E+6	2.85463E+6	2.45800E+3
6.24234E+2	2.85457E+6	2.85263E+6	1.93600E+3
6.24723E+2	2.85637E+6	2.85324E+6	3.13000E+3
6.25211E+2	2.85668E+6	2.85587E+6	8.18000E+2
6.25700E+2	2.85425E+6	2.85379E+6	4.57000E+2
6.26188E+2	2.85498E+6	2.85268E+6	2.30100E+3
6.26677E+2	2.85557E+6	2.85319E+6	2.38000E+3
6.27165E+2	2.85682E+6	2.85264E+6	4.18500E+3
6.27653E+2	2.85507E+6	2.85245E+6	2.62500E+3
6.28142E+2	2.85571E+6	2.85202E+6	3.69500E+3
6.28630E+2	2.85492E+6	2.85227E+6	2.64500E+3
6.29118E+2	2.85479E+6	2.85208E+6	2.71400E+3
6.29606E+2	2.85497E+6	2.85330E+6	1.67200E+3
6.30094E+2	2.85475E+6	2.85224E+6	2.50600E+3
6.30582E+2	2.85481E+6	2.85226E+6	2.54900E+3
6.31070E+2	2.85634E+6	2.85373E+6	2.61300E+3
6.31558E+2	2.85312E+6	2.85188E+6	1.24100E+3
6.32046E+2	2.85313E+6	2.85228E+6	8.49000E+2
6.32534E+2	2.85364E+6	2.85205E+6	1.58700E+3
6.33022E+2	2.85235E+6	2.85096E+6	1.39000E+3
6.33510E+2	2.85130E+6	2.85021E+6	1.09200E+3
6.33997E+2	2.85280E+6	2.85201E+6	7.93000E+2
6.34485E+2	2.85322E+6	2.85148E+6	1.73500E+3
6.34973E+2	2.85303E+6	2.85130E+6	1.72600E+3
6.35460E+2	2.85481E+6	2.85319E+6	1.62900E+3
6.35948E+2	2.84873E+6	2.84734E+6	1.39300E+3
6.36435E+2	2.85285E+6	2.85146E+6	1.39100E+3
6.36922E+2	2.85293E+6	2.85066E+6	2.27200E+3
6.37410E+2	2.85391E+6	2.85114E+6	2.77000E+3
6.37897E+2	2.85424E+6	2.85403E+6	2.12000E+2
6.38384E+2	2.85280E+6	2.85179E+6	1.01100E+3
6.38872E+2	2.85228E+6	2.84954E+6	2.74300E+3
6.39359E+2	2.85218E+6	2.85069E+6	1.48700E+3
6.39846E+2	2.85350E+6	2.85148E+6	2.02100E+3
6.40333E+2	2.85485E+6	2.85368E+6	1.17000E+3
6.40820E+2	2.85234E+6	2.85083E+6	1.51500E+3
6.41307E+2	2.85315E+6	2.85178E+6	1.37700E+3
6.41794E+2	2.85364E+6	2.85174E+6	1.89800E+3
6.42280E+2	2.85562E+6	2.85406E+6	1.55300E+3
6.42767E+2	2.85614E+6	2.85372E+6	2.41500E+3
6.43254E+2	2.85349E+6	2.85284E+6	6.53000E+2
6.43741E+2	2.85452E+6	2.85356E+6	9.58000E+2
6.44227E+2	2.85507E+6	2.85322E+6	1.85100E+3
6.44714E+2	2.85485E+6	2.85343E+6	1.41500E+3
6.45200E+2	2.85469E+6	2.85354E+6	1.14900E+3
6.45687E+2	2.85460E+6	2.85302E+6	1.57600E+3
6.46173E+2	2.85756E+6	2.85479E+6	2.77100E+3
6.46659E+2	2.85480E+6	2.85293E+6	1.87300E+3
6.47146E+2	2.85320E+6	2.85285E+6	3.49000E+2
6.47632E+2	2.85501E+6	2.85366E+6	1.34800E+3
6.48118E+2	2.85446E+6	2.85279E+6	1.67700E+3
6.48604E+2	2.85465E+6	2.85415E+6	5.06000E+2
6.49090E+2	2.85451E+6	2.85319E+6	1.31600E+3
6.49576E+2	2.85442E+6	2.85487E+6	-4.46000E+2
6.50062E+2	2.85415E+6	2.85451E+6	-3.58000E+2
6.50548E+2	2.85598E+6	2.85362E+6	2.35300E+3
6.51034E+2	2.85646E+6	2.85443E+6	2.02800E+3
6.51520E+2	2.85265E+6	2.85210E+6	5.45000E+2
6.52005E+2	2.85517E+6	2.85444E+6	7.31000E+2
6.52491E+2	2.85611E+6	2.85445E+6	1.65500E+3
6.52977E+2	2.85484E+6	2.85403E+6	8.06000E+2
6.53462E+2	2.85424E+6	2.85373E+6	5.10000E+2
6.53948E+2	2.85151E+6	2.85086E+6	6.51000E+2
6.54433E+2	2.85502E+6	2.85365E+6	1.36800E+3
6.54919E+2	2.85417E+6	2.85411E+6	5.90000E+1
6.55404E+2	2.85506E+6	2.85469E+6	3.76000E+2
6.55889E+2	2.85600E+6	2.85594E+6	6.00000E+1
6.56375E+2	2.85310E+6	2.85265E+6	4.55000E+2
6.56860E+2	2.85358E+6	2.85346E+6	1.17000E+2
6.57345E+2	2.85409E+6	2.85382E+6	2.77000E+2
6.57830E+2	2.85383E+6	2.85384E+6	-5.00000E+0
6.58315E+2	2.85541E+6	2.85546E+6	-4.60000E+1
6.58800E+2	2.85402E+6	2.85403E+6	-1.10000E+1
6.59285E+2	2.85429E+6	2.85432E+6	-2.80000E+1
6.59770E+2	2.85495E+6	2.85493E+6	2.40000E+1
6.60254E+2	2.85391E+6	2.85415E+6	-2.32000E+2
6.60739E+2	2.85420E+6	2.85372E+6	4.82000E+2
6.61224E+2	2.85440E+6	2.85422E+6	1.78000E+2
6.61708E+2	2.85447E+6	2.85505E+6	-5.81000E+2
6.62193E+2	2.85479E+6	2.85477E+6	2.00000E+1
6.62677E+2	2.85626E+6	2.85638E+6	-1.12000E+2
6.63162E+2	2.85623E+6	2.85573E+6	4.94000E+2
6.63646E+2	2.85532E+6	2.85513E+6	1.95000E+2
6.64130E+2	2.85683E+6	2.85614E+6	6.94000E+2
6.64615E+2	2.85550E+6	2.85573E+6	-2.33000E+2
6.65099E+2	2.85733E+6	2.85733E+6	1.00000E+0
6.65583E+2	2.85785E+6	2.85782E+6	3.40000E+1
6.66067E+2	2.85820E+6	2.85754E+6	6.59000E+2
6.66551E+2	2.85858E+6	2.85848E+6	1.03000E+2
6.67035E+2	2.85799E+6	2.85824E+6	-2.53000E+2
6.67519E+2	2.85951E+6	2.85975E+6	-2.49000E+2
6.68002E+2	2.86021E+6	2.85944E+6	7.69000E+2
6.68486E+2	2.86015E+6	2.86033E+6	-1.86000E+2
6.68970E+2	2.86009E+6	2.86021E+6	-1.28000E+2
6.69453E+2	2.86014E+6	2.85982E+6	3.15000E+2
6.69937E+2	2.86134E+6	2.86101E+6	3.31000E+2
6.70420E+2	2.86103E+6	2.86148E+6	-4.49000E+2
6.70904E+2	2.86198E+6	2.86135E+6	6.35000E+2
6.71387E+2	2.86199E+6	2.86170E+6	2.88000E+2
6.71871E+2	2.86264E+6	2.86240E+6	2.41000E+2
6.72354E+2	2.86269E+6	2.86287E+6	-1.82000E+2
6.72837E+2	2.86126E+6	2.86120E+6	6.00000E+1
6.73320E+2	2.86225E+6	2.86211E+6	1.33000E+2
6.73803E+2	2.86195E+6	2.86245E+6	-5.01000E+2
6.74286E+2	2.86263E+6	2.86231E+6	3.22000E+2
6.74769E+2	2.86274E+6	2.86225E+6	4.92000E+2
[AndorNewton]
[Detectors]